 fitted spectra
 nl:         352
 Time explicit
 Intervalnr            1
           0
   660.005981       1398.21704
   660.354980       1682.81592
   660.703979       1932.76233
   661.054016       2116.62354
   661.403015       2222.05054
   661.752014       2292.56958
   662.101013       2658.04688
   662.450989       3085.54565
   662.799988       3305.21265
   663.148987       3536.40674
   663.497986       3503.71265
   663.846985       3754.36597
   664.195984       4030.03979
   664.544006       4468.62988
   664.893005       4660.34668
   665.242004       4663.14160
   665.591003       4735.65576
   665.939026       4882.04639
   666.288025       5145.23047
   666.637024       5440.27246
   666.984985       5629.81152
   667.333984       5784.84570
   667.682007       6008.62451
   668.031006       6379.19678
   668.379028       6697.76270
   668.726990       6817.95312
   669.075989       6842.81982
   669.424011       7114.69824
   669.771973       7514.58057
   670.119995       7907.01904
   670.468018       8166.25195
   670.815979       8494.10938
   671.164001       8903.57324
   671.512024       9122.58984
   671.859985       9385.79297
   672.208008       9696.72363
   672.556030       10361.6084
   672.903015       10495.8857
   673.250977       10889.6094
   673.598999       10867.1162
   673.945984       11374.7949
   674.294006       11840.0479
   674.642029       12245.1016
   674.989014       12827.5459
   675.336975       13098.6221
   675.684021       13771.3916
   676.031006       14080.3281
   676.379028       14559.8711
   676.726013       15008.2910
   677.072998       15691.3223
   677.419983       16482.2734
   677.767029       16920.3867
   678.114014       17149.9668
   678.460999       17564.5566
   678.807983       18263.4941
   679.155029       18996.8066
   679.502014       19068.6582
   679.848999       19369.7383
   680.195984       19482.8496
   680.543030       20506.8926
   680.888977       21115.2305
   681.236023       21901.7754
   681.581970       22283.8652
   681.929016       22384.4102
   682.276001       23098.5312
   682.622009       23681.0410
   682.968018       24088.6758
   683.315002       24083.4355
   683.661011       24133.9004
   684.007019       24729.4727
   684.354004       24878.3535
   684.700012       25081.3652
   685.046021       25073.2969
   685.392029       24904.6895
   685.737976       24598.8730
   686.083984       24659.9004
   686.429993       24744.8828
   686.776001       25068.8184
   687.122009       25015.8301
   687.468018       25072.2422
   687.812988       24660.6152
   688.158997       24858.6777
   688.505005       24999.1543
   688.849976       24737.9844
   689.195984       23946.1660
   689.541016       23782.0391
   689.887024       23675.8730
   690.231995       23633.0586
   690.578003       22729.6602
   690.922974       22442.2773
   691.268005       22141.2188
   691.614014       22280.4492
   691.958984       21691.8828
   692.304016       21406.1289
   692.648987       20609.6816
   692.994019       20658.1777
   693.338989       20266.8770
   693.684021       20331.0781
   694.028992       20173.9902
   694.374023       19786.1445
   694.718994       19308.2969
   695.064026       18967.9863
   695.408020       18843.4336
   695.752991       18961.0801
   696.098022       18783.7773
   696.442017       18810.2070
   696.786987       18317.9277
   697.130981       18290.9961
   697.476013       18001.2441
   697.820007       17983.1895
   698.164978       17525.9902
   698.508972       17315.6230
   698.853027       17281.6230
   699.197021       17276.4707
   699.541992       17211.4570
   699.885986       17164.0332
   700.229980       16933.6777
   700.573975       16858.2129
   700.918030       17009.1484
   701.262024       16804.9062
   701.606018       16728.6816
   701.948975       16195.7334
   702.293030       16434.0059
   702.637024       16129.2686
   702.981018       16035.0371
   703.323975       15599.2588
   703.668030       15609.4238
   704.012024       15860.2090
   704.354980       15664.0625
   704.698975       15690.9824
   705.041992       15696.3223
   705.385010       15882.5625
   705.729004       15673.4980
   706.072021       15260.3008
   706.414978       15435.2861
   706.757996       15260.3906
   707.101013       15010.0947
   707.445007       14698.5264
   707.788025       14633.6768
   708.130981       14967.3320
   708.473999       14838.3232
   708.815979       14880.8506
   709.158997       14515.9316
   709.502014       14664.7041
   709.844971       14300.8398
   710.187988       14461.9346
   710.530029       14539.3223
   710.872986       15041.4785
   711.215027       14899.3281
   711.557983       14644.3721
   711.901001       14462.5371
   712.242981       14387.6035
   712.585022       14426.4756
   712.927979       14185.4316
   713.270020       14171.3262
   713.612000       14227.2139
   713.953979       14460.2725
   714.296997       14250.3730
   714.638977       14212.1543
   714.981018       14341.5312
   715.322998       14757.1680
   715.664978       14735.8496
   716.007019       14702.7344
   716.348022       14568.8711
   716.690002       14407.0645
   717.031982       14442.7109
   717.374023       14196.9863
   717.715027       14516.8906
   718.057007       14246.2979
   718.398987       14417.3857
   718.739990       14234.8506
   719.081970       14620.8594
   719.422974       14685.0195
   719.765015       14548.2539
   720.106018       14460.4785
   720.447021       14314.1016
   720.788025       14430.0293
   721.130005       14426.9443
   721.471008       14490.8174
   721.812012       14495.8203
   722.153015       14286.6484
   722.494019       14370.8057
   722.835022       14445.8486
   723.176025       14470.8086
   723.517029       14682.5928
   723.857971       14765.7510
   724.197998       14635.4980
   724.539001       14084.6387
   724.880005       13505.1250
   725.219971       13497.6826
   725.560974       13873.1240
   725.901978       14046.9434
   726.242004       14075.3838
   726.581970       13875.9238
   726.922974       13994.3643
   727.263000       14130.5928
   727.603027       14332.4814
   727.943970       14533.0537
   728.283997       14615.1885
   728.624023       14594.8740
   728.963989       14386.8018
   729.304016       14270.5830
   729.643982       14099.6934
   729.984009       14093.5293
   730.323975       13780.4512
   730.664001       13958.7949
   731.004028       13909.0400
   731.343994       14276.0430
   731.682983       14367.3037
   732.023010       14313.8428
   732.362976       14321.7500
   732.702026       14026.6602
   733.041992       14266.0977
   733.380981       14362.5000
   733.721008       14256.9766
   734.059998       14467.3867
   734.400024       14434.4717
   734.739014       14761.0752
   735.078003       14779.1689
   735.416992       14525.3281
   735.755981       14533.5957
   736.096008       14196.3838
   736.434998       14344.6289
   736.773987       14344.4502
   737.112976       14518.6006
   737.452026       14394.9873
   737.789978       14147.3076
   738.129028       14121.8047
   738.468018       14237.4023
   738.807007       14517.9629
   739.145020       14571.6963
   739.484009       14721.1641
   739.822998       15028.2451
   740.161011       14916.1670
   740.500000       14939.9326
   740.838013       14298.6113
   741.177002       14200.8105
   741.515015       13800.0879
   741.853027       14027.8350
   742.190979       14166.5703
   742.530029       14045.1855
   742.867981       13855.5049
   743.205994       13563.4688
   743.544006       13599.9873
   743.882019       13579.1436
   744.219971       13479.4902
   744.557983       13421.1719
   744.895996       13187.9873
   745.234009       12905.2236
   745.570984       12573.8340
   745.908997       12451.3154
   746.247009       12500.5518
   746.583984       12167.9053
   746.921997       11975.1006
   747.258972       11822.1406
   747.596985       12020.8955
   747.934021       11617.1592
   748.271973       11251.7510
   748.609009       10678.9473
   748.945984       10662.6494
   749.283997       10576.6064
   749.620972       10736.4424
   749.958008       10495.1289
   750.294983       10369.4658
   750.632019       10062.4697
   750.968994       9943.84277
   751.306030       9469.43359
   751.643005       9509.16699
   751.979980       9470.27930
   752.317017       9698.79785
   752.653015       9447.84570
   752.989990       9033.05469
   753.327026       8642.56641
   753.663025       8284.84863
   754.000000       8415.56934
   754.335999       8310.22559
   754.672974       8238.99414
   755.008972       7916.55127
   755.346008       7696.94287
   755.682007       7724.98584
   756.018005       7597.13525
   756.354980       7755.08301
   756.690979       7533.73633
   757.026978       7399.45264
   757.362976       7166.00635
   757.698975       7111.13428
   758.034973       7362.71143
   758.370972       7289.24951
   758.706970       7196.18701
   759.043030       6777.60498
   759.379028       6415.87646
   759.713989       6332.64697
   760.049988       6403.93701
   760.385986       6519.74512
   760.721008       6328.20801
   761.057007       6254.59961
   761.392029       6298.43604
   761.728027       6338.68408
   762.062988       6123.33301
   762.398987       5916.57861
   762.734009       5934.96777
   763.068970       5914.27539
   763.403992       5843.81592
   763.739990       5712.98340
   764.075012       5690.11182
   764.409973       5519.64062
   764.744995       5304.45312
   765.080017       5193.87305
   765.414978       5229.67676
   765.750000       5059.55225
   766.083984       5035.48682
   766.419006       4933.38232
   766.754028       4983.80322
   767.088989       4767.67773
   767.422974       4651.36523
   767.757996       4735.32373
   768.091980       4883.54932
   768.427002       4861.93359
   768.760986       4757.01221
   769.096008       4788.32861
   769.429993       4691.12939
   769.763977       4709.01562
   770.098999       4370.98730
   770.432983       4409.59033
   770.767029       4111.32129
   771.101013       4130.49658
   771.434998       3991.30225
   771.768982       3987.34741
   772.103027       3802.43799
   772.437012       3660.10010
   772.770996       3708.04224
   773.104980       3680.93433
   773.437988       3603.66870
   773.771973       3314.89575
   774.106018       3170.60156
   774.439026       3227.37817
   774.773010       3092.90405
   775.106018       2943.25024
   775.440002       2650.81763
   775.773010       2720.81128
   776.106995       2675.85254
   776.440002       2737.94238
   776.773010       2633.68628
   777.106995       2517.61353
   777.440002       2478.28857
   777.773010       2334.18652
   778.106018       2289.49463
   778.439026       2080.33374
   778.771973       1977.69995
   779.104980       1941.05225
   779.437988       2008.52661
   779.770996       2044.05774
